#                                                                                
# Lorentzian broadening with gamma= 0.100000  [eV]
# Im(epsilon) shifted by   0.0000   [eV]
# Intraband contributions added: w_p=   9.111
#                              Gamma=   0.100
# Energy [eV] Re_eps_xx     Im_eps_xx
#
   0.013610 -0.814585E+04  0.598803E+05
   0.040820 -0.711124E+04  0.174305E+05
   0.068030 -0.567062E+04  0.834116E+04
   0.095240 -0.434873E+04  0.457015E+04
   0.122450 -0.331721E+04  0.271221E+04
   0.149660 -0.255823E+04  0.171197E+04
   0.176870 -0.200682E+04  0.113684E+04
   0.204090 -0.160315E+04  0.787435E+03
   0.231300 -0.130334E+04  0.565184E+03
   0.258510 -0.107657E+04  0.417977E+03
   0.285720 -0.901966E+03  0.317067E+03
   0.312930 -0.765245E+03  0.245810E+03
   0.340140 -0.656511E+03  0.194182E+03
   0.367350 -0.568801E+03  0.155926E+03
   0.394570 -0.497114E+03  0.127005E+03
   0.421780 -0.437886E+03  0.104772E+03
   0.448990 -0.388415E+03  0.874076E+02
   0.476200 -0.346701E+03  0.736564E+02
   0.503410 -0.311222E+03  0.626306E+02
   0.530620 -0.280810E+03  0.536905E+02
   0.557830 -0.254553E+03  0.463675E+02
   0.585040 -0.231734E+03  0.403135E+02
   0.612260 -0.211776E+03  0.352644E+02
   0.639470 -0.194236E+03  0.310239E+02
   0.666680 -0.178736E+03  0.274355E+02
   0.693890 -0.164973E+03  0.243790E+02
   0.721100 -0.152699E+03  0.217597E+02
   0.748310 -0.141707E+03  0.195024E+02
   0.775520 -0.131825E+03  0.175467E+02
   0.802740 -0.122907E+03  0.158435E+02
   0.829950 -0.114837E+03  0.143545E+02
   0.857160 -0.107509E+03  0.130466E+02
   0.884370 -0.100835E+03  0.118933E+02
   0.911580 -0.947386E+02  0.108723E+02
   0.938790 -0.891562E+02  0.996532E+01
   0.966000 -0.840314E+02  0.915689E+01
   0.993220 -0.793138E+02  0.843375E+01
   1.020430 -0.749646E+02  0.778546E+01
   1.047640 -0.709450E+02  0.720239E+01
   1.074850 -0.672223E+02  0.667657E+01
   1.102060 -0.637681E+02  0.620116E+01
   1.129270 -0.605571E+02  0.577030E+01
   1.156480 -0.575669E+02  0.537889E+01
   1.183700 -0.547767E+02  0.502243E+01
   1.210910 -0.521709E+02  0.469735E+01
   1.238120 -0.497325E+02  0.440019E+01
   1.265330 -0.474474E+02  0.412803E+01
   1.292540 -0.453031E+02  0.387832E+01
   1.319750 -0.432880E+02  0.364880E+01
   1.346960 -0.413919E+02  0.343750E+01
   1.374180 -0.396048E+02  0.324259E+01
   1.401390 -0.379197E+02  0.306267E+01
   1.428600 -0.363283E+02  0.289627E+01
   1.455810 -0.348237E+02  0.274217E+01
   1.483020 -0.333995E+02  0.259928E+01
   1.510230 -0.320500E+02  0.246661E+01
   1.537440 -0.307700E+02  0.234328E+01
   1.564660 -0.295543E+02  0.222847E+01
   1.591870 -0.283992E+02  0.212156E+01
   1.619080 -0.273004E+02  0.202185E+01
   1.646290 -0.262541E+02  0.192878E+01
   1.673500 -0.252569E+02  0.184183E+01
   1.700710 -0.243057E+02  0.176052E+01
   1.727920 -0.233975E+02  0.168443E+01
   1.755130 -0.225297E+02  0.161318E+01
   1.782350 -0.216994E+02  0.154639E+01
   1.809560 -0.209050E+02  0.148379E+01
   1.836770 -0.201440E+02  0.142506E+01
   1.863980 -0.194145E+02  0.136994E+01
   1.891190 -0.187145E+02  0.131820E+01
   1.918400 -0.180423E+02  0.126960E+01
   1.945610 -0.173964E+02  0.122396E+01
   1.972830 -0.167750E+02  0.118107E+01
   2.000040 -0.161772E+02  0.114081E+01
   2.027250 -0.156013E+02  0.110300E+01
   2.054460 -0.150461E+02  0.106751E+01
   2.081670 -0.145106E+02  0.103422E+01
   2.108880 -0.139935E+02  0.100302E+01
   2.136090 -0.134938E+02  0.973804E+00
   2.163310 -0.130105E+02  0.946478E+00
   2.190520 -0.125428E+02  0.920983E+00
   2.217730 -0.120898E+02  0.897244E+00
   2.244940 -0.116505E+02  0.875202E+00
   2.272150 -0.112242E+02  0.854812E+00
   2.299360 -0.108102E+02  0.836038E+00
   2.326570 -0.104075E+02  0.818855E+00
   2.353790 -0.100155E+02  0.803246E+00
   2.381000 -0.963373E+01  0.789223E+00
   2.408210 -0.926127E+01  0.776796E+00
   2.435420 -0.889751E+01  0.765995E+00
   2.462630 -0.854177E+01  0.756874E+00
   2.489840 -0.819339E+01  0.749508E+00
   2.517050 -0.785172E+01  0.743999E+00
   2.544270 -0.751595E+01  0.740487E+00
   2.571480 -0.718563E+01  0.739158E+00
   2.598690 -0.685993E+01  0.740254E+00
   2.625900 -0.653809E+01  0.744092E+00
   2.653110 -0.621932E+01  0.751096E+00
   2.680320 -0.590276E+01  0.761826E+00
   2.707530 -0.558753E+01  0.777042E+00
   2.734750 -0.527255E+01  0.797788E+00
   2.761960 -0.495708E+01  0.825483E+00
   2.789170 -0.464011E+01  0.862140E+00
   2.816380 -0.432106E+01  0.910563E+00
   2.843590 -0.400011E+01  0.974578E+00
   2.870800 -0.367916E+01  0.105900E+01
   2.898010 -0.336296E+01  0.116878E+01
   2.925220 -0.305974E+01  0.130675E+01
   2.952440 -0.277942E+01  0.147112E+01
   2.979650 -0.253035E+01  0.165447E+01
   3.006860 -0.231557E+01  0.184665E+01
   3.034070 -0.213289E+01  0.203842E+01
   3.061280 -0.197742E+01  0.222395E+01
   3.088490 -0.184411E+01  0.240056E+01
   3.115700 -0.172890E+01  0.256733E+01
   3.142920 -0.162868E+01  0.272415E+01
   3.170130 -0.154108E+01  0.287101E+01
   3.197340 -0.146406E+01  0.300822E+01
   3.224550 -0.139586E+01  0.313609E+01
   3.251760 -0.133493E+01  0.325510E+01
   3.278970 -0.127996E+01  0.336585E+01
   3.306180 -0.122995E+01  0.346899E+01
   3.333400 -0.118409E+01  0.356503E+01
   3.360610 -0.114158E+01  0.365425E+01
   3.387820 -0.110145E+01  0.373707E+01
   3.415030 -0.106273E+01  0.381408E+01
   3.442240 -0.102449E+01  0.388595E+01
   3.469450 -0.985786E+00  0.395353E+01
   3.496660 -0.945706E+00  0.401793E+01
   3.523880 -0.903392E+00  0.408061E+01
   3.551090 -0.858256E+00  0.414340E+01
   3.578300 -0.810098E+00  0.420876E+01
   3.605510 -0.759625E+00  0.427970E+01
   3.632720 -0.709150E+00  0.435945E+01
   3.659930 -0.663028E+00  0.445024E+01
   3.687140 -0.626809E+00  0.455170E+01
   3.714360 -0.605192E+00  0.466057E+01
   3.741570 -0.600561E+00  0.477183E+01
   3.768780 -0.612803E+00  0.488046E+01
   3.795990 -0.639768E+00  0.498238E+01
   3.823200 -0.678057E+00  0.507545E+01
   3.850410 -0.724746E+00  0.515981E+01
   3.877620 -0.778833E+00  0.523637E+01
   3.904840 -0.840379E+00  0.530491E+01
   3.932050 -0.908651E+00  0.536425E+01
   3.959260 -0.982128E+00  0.541385E+01
   3.986470 -0.105964E+01  0.545424E+01
   4.013680 -0.114155E+01  0.548602E+01
   4.040890 -0.122936E+01  0.550772E+01
   4.068100 -0.132262E+01  0.551480E+01
   4.095310 -0.141569E+01  0.550301E+01
   4.122530 -0.150020E+01  0.547368E+01
   4.149740 -0.157093E+01  0.543354E+01
   4.176950 -0.162807E+01  0.539004E+01
   4.204160 -0.167533E+01  0.534811E+01
   4.231370 -0.171738E+01  0.530942E+01
   4.258580 -0.175821E+01  0.527290E+01
   4.285790 -0.179983E+01  0.523561E+01
   4.313010 -0.184140E+01  0.519441E+01
   4.340220 -0.188008E+01  0.514843E+01
   4.367430 -0.191377E+01  0.509924E+01
   4.394640 -0.194237E+01  0.504911E+01
   4.421850 -0.196712E+01  0.499937E+01
   4.449060 -0.198929E+01  0.495002E+01
   4.476270 -0.200931E+01  0.490050E+01
   4.503490 -0.202698E+01  0.485060E+01
   4.530700 -0.204216E+01  0.480066E+01
   4.557910 -0.205510E+01  0.475096E+01
   4.585120 -0.206603E+01  0.470155E+01
   4.612330 -0.207506E+01  0.465245E+01
   4.639540 -0.208221E+01  0.460378E+01
   4.666750 -0.208761E+01  0.455575E+01
   4.693970 -0.209147E+01  0.450847E+01
   4.721180 -0.209400E+01  0.446210E+01
   4.748390 -0.209547E+01  0.441667E+01
   4.775600 -0.209615E+01  0.437217E+01
   4.802810 -0.209628E+01  0.432848E+01
   4.830020 -0.209602E+01  0.428551E+01
   4.857230 -0.209559E+01  0.424307E+01
   4.884450 -0.209512E+01  0.420088E+01
   4.911660 -0.209458E+01  0.415862E+01
   4.938870 -0.209372E+01  0.411601E+01
   4.966080 -0.209225E+01  0.407298E+01
   4.993290 -0.208991E+01  0.402958E+01
   5.020500 -0.208645E+01  0.398595E+01
   5.047710 -0.208171E+01  0.394235E+01
   5.074930 -0.207563E+01  0.389910E+01
   5.102140 -0.206841E+01  0.385657E+01
   5.129350 -0.206033E+01  0.381490E+01
   5.156560 -0.205169E+01  0.377407E+01
   5.183770 -0.204270E+01  0.373394E+01
   5.210980 -0.203342E+01  0.369434E+01
   5.238190 -0.202382E+01  0.365513E+01
   5.265400 -0.201379E+01  0.361626E+01
   5.292620 -0.200327E+01  0.357779E+01
   5.319830 -0.199232E+01  0.353985E+01
   5.347040 -0.198107E+01  0.350243E+01
   5.374250 -0.196962E+01  0.346541E+01
   5.401460 -0.195794E+01  0.342866E+01
   5.428670 -0.194594E+01  0.339205E+01
   5.455880 -0.193343E+01  0.335558E+01
   5.483100 -0.192026E+01  0.331936E+01
   5.510310 -0.190638E+01  0.328356E+01
   5.537520 -0.189179E+01  0.324839E+01
   5.564730 -0.187662E+01  0.321402E+01
   5.591940 -0.186107E+01  0.318054E+01
   5.619150 -0.184534E+01  0.314794E+01
   5.646360 -0.182958E+01  0.311616E+01
   5.673580 -0.181390E+01  0.308506E+01
   5.700790 -0.179839E+01  0.305453E+01
   5.728000 -0.178304E+01  0.302441E+01
   5.755210 -0.176780E+01  0.299457E+01
   5.782420 -0.175257E+01  0.296494E+01
   5.809630 -0.173725E+01  0.293548E+01
   5.836840 -0.172171E+01  0.290623E+01
   5.864060 -0.170588E+01  0.287726E+01
   5.891270 -0.168978E+01  0.284871E+01
   5.918480 -0.167344E+01  0.282066E+01
   5.945690 -0.165696E+01  0.279315E+01
   5.972900 -0.164044E+01  0.276617E+01
   6.000110 -0.162394E+01  0.273967E+01
   6.027320 -0.160750E+01  0.271360E+01
   6.054540 -0.159111E+01  0.268788E+01
   6.081750 -0.157476E+01  0.266252E+01
   6.108960 -0.155848E+01  0.263750E+01
   6.136170 -0.154228E+01  0.261280E+01
   6.163380 -0.152617E+01  0.258836E+01
   6.190590 -0.151017E+01  0.256416E+01
   6.217800 -0.149429E+01  0.254015E+01
   6.245020 -0.147854E+01  0.251628E+01
   6.272230 -0.146297E+01  0.249247E+01
   6.299440 -0.144754E+01  0.246855E+01
   6.326650 -0.143214E+01  0.244435E+01
   6.353860 -0.141653E+01  0.241979E+01
   6.381070 -0.140046E+01  0.239488E+01
   6.408280 -0.138369E+01  0.236977E+01
   6.435490 -0.136610E+01  0.234467E+01
   6.462710 -0.134762E+01  0.231982E+01
   6.489920 -0.132834E+01  0.229543E+01
   6.517130 -0.130834E+01  0.227164E+01
   6.544340 -0.128771E+01  0.224855E+01
   6.571550 -0.126656E+01  0.222624E+01
   6.598760 -0.124499E+01  0.220478E+01
   6.625970 -0.122313E+01  0.218419E+01
   6.653190 -0.120113E+01  0.216448E+01
   6.680400 -0.117912E+01  0.214557E+01
   6.707610 -0.115715E+01  0.212733E+01
   6.734820 -0.113518E+01  0.210965E+01
   6.762030 -0.111313E+01  0.209250E+01
   6.789240 -0.109089E+01  0.207591E+01
   6.816450 -0.106846E+01  0.206000E+01
   6.843670 -0.104584E+01  0.204487E+01
   6.870880 -0.102316E+01  0.203064E+01
   6.898090 -0.100057E+01  0.201735E+01
   6.925300 -0.978256E+00  0.200494E+01
   6.952510 -0.956310E+00  0.199325E+01
   6.979720 -0.934707E+00  0.198215E+01
   7.006930 -0.913360E+00  0.197158E+01
   7.034150 -0.892210E+00  0.196157E+01
   7.061360 -0.871287E+00  0.195220E+01
   7.088570 -0.850626E+00  0.194347E+01
   7.115780 -0.830275E+00  0.193541E+01
   7.142990 -0.810303E+00  0.192807E+01
   7.170200 -0.790837E+00  0.192147E+01
   7.197410 -0.772090E+00  0.191559E+01
   7.224630 -0.754279E+00  0.191025E+01
   7.251840 -0.737508E+00  0.190512E+01
   7.279050 -0.721690E+00  0.189993E+01
   7.306260 -0.706679E+00  0.189446E+01
   7.333470 -0.692305E+00  0.188856E+01
   7.360680 -0.678376E+00  0.188216E+01
   7.387890 -0.664742E+00  0.187522E+01
   7.415110 -0.651319E+00  0.186767E+01
   7.442320 -0.637970E+00  0.185929E+01
   7.469530 -0.624269E+00  0.184986E+01
   7.496740 -0.609531E+00  0.183943E+01
   7.523950 -0.593131E+00  0.182853E+01
   7.551160 -0.574865E+00  0.181798E+01
   7.578370 -0.554967E+00  0.180852E+01
   7.605580 -0.533854E+00  0.180061E+01
   7.632800 -0.511974E+00  0.179455E+01
   7.660010 -0.489861E+00  0.179055E+01
   7.687220 -0.468118E+00  0.178864E+01
   7.714430 -0.447390E+00  0.178858E+01
   7.741640 -0.428182E+00  0.178983E+01
   7.768850 -0.410631E+00  0.179161E+01
   7.796060 -0.394424E+00  0.179321E+01
   7.823280 -0.378926E+00  0.179427E+01
   7.850490 -0.363502E+00  0.179486E+01
   7.877700 -0.347746E+00  0.179536E+01
   7.904910 -0.331587E+00  0.179618E+01
   7.932120 -0.315138E+00  0.179756E+01
   7.959330 -0.298457E+00  0.179955E+01
   7.986540 -0.281409E+00  0.180216E+01
   8.013760 -0.263729E+00  0.180563E+01
   8.040970 -0.245177E+00  0.181041E+01
   8.068180 -0.225628E+00  0.181731E+01
   8.095390 -0.205393E+00  0.182752E+01
   8.122600 -0.185679E+00  0.184233E+01
   8.149810 -0.168755E+00  0.186239E+01
   8.177020 -0.157380E+00  0.188685E+01
   8.204240 -0.153655E+00  0.191320E+01
   8.231450 -0.158013E+00  0.193795E+01
   8.258660 -0.168929E+00  0.195788E+01
   8.285870 -0.183466E+00  0.197114E+01
   8.313080 -0.198378E+00  0.197776E+01
   8.340290 -0.211325E+00  0.197934E+01
   8.367500 -0.221424E+00  0.197798E+01
   8.394720 -0.228871E+00  0.197537E+01
   8.421930 -0.234331E+00  0.197266E+01
   8.449140 -0.238713E+00  0.197048E+01
   8.476350 -0.243093E+00  0.196897E+01
   8.503560 -0.248416E+00  0.196756E+01
   8.530770 -0.255061E+00  0.196516E+01
   8.557980 -0.262504E+00  0.196060E+01
   8.585200 -0.269474E+00  0.195339E+01
   8.612410 -0.274768E+00  0.194403E+01
   8.639620 -0.277882E+00  0.193349E+01
   8.666830 -0.278858E+00  0.192257E+01
   8.694040 -0.277923E+00  0.191181E+01
   8.721250 -0.275327E+00  0.190162E+01
   8.748460 -0.271364E+00  0.189231E+01
   8.775670 -0.266422E+00  0.188418E+01
   8.802890 -0.261021E+00  0.187736E+01
   8.830100 -0.255735E+00  0.187168E+01
   8.857310 -0.250911E+00  0.186664E+01
   8.884520 -0.246418E+00  0.186167E+01
   8.911730 -0.241752E+00  0.185654E+01
   8.938940 -0.236464E+00  0.185153E+01
   8.966150 -0.230473E+00  0.184719E+01
   8.993370 -0.224067E+00  0.184398E+01
   9.020580 -0.217809E+00  0.184218E+01
   9.047790 -0.212420E+00  0.184171E+01
   9.075000 -0.208553E+00  0.184205E+01
   9.102210 -0.206416E+00  0.184226E+01
   9.129420 -0.205612E+00  0.184152E+01
   9.156630 -0.205398E+00  0.183944E+01
   9.183850 -0.205095E+00  0.183610E+01
   9.211060 -0.204263E+00  0.183178E+01
   9.238270 -0.202653E+00  0.182682E+01
   9.265480 -0.200171E+00  0.182160E+01
   9.292690 -0.196865E+00  0.181640E+01
   9.319900 -0.192877E+00  0.181145E+01
   9.347110 -0.188360E+00  0.180683E+01
   9.374330 -0.183421E+00  0.180255E+01
   9.401540 -0.178114E+00  0.179861E+01
   9.428750 -0.172444E+00  0.179498E+01
   9.455960 -0.166367E+00  0.179165E+01
   9.483170 -0.159768E+00  0.178867E+01
   9.510380 -0.152519E+00  0.178621E+01
   9.537590 -0.144577E+00  0.178452E+01
   9.564810 -0.136049E+00  0.178393E+01
   9.592020 -0.127173E+00  0.178466E+01
   9.619230 -0.118170E+00  0.178679E+01
   9.646440 -0.109100E+00  0.179041E+01
   9.673650 -0.100006E+00  0.179596E+01
   9.700860 -0.914534E-01  0.180419E+01
   9.728070 -0.848565E-01  0.181547E+01
   9.755290 -0.819590E-01  0.182905E+01
   9.782500 -0.837451E-01  0.184296E+01
   9.809710 -0.897386E-01  0.185504E+01
   9.836920 -0.983995E-01  0.186402E+01
   9.864130 -0.108134E+00  0.186976E+01
   9.891340 -0.117911E+00  0.187273E+01
   9.918550 -0.127160E+00  0.187340E+01
   9.945760 -0.135411E+00  0.187214E+01
   9.972980 -0.142173E+00  0.186947E+01
  10.000190 -0.147120E+00  0.186617E+01
  10.027400 -0.150408E+00  0.186315E+01
  10.054610 -0.152661E+00  0.186105E+01
  10.081820 -0.154626E+00  0.185997E+01
  10.109030 -0.156782E+00  0.185962E+01
  10.136240 -0.159202E+00  0.185967E+01
  10.163460 -0.161758E+00  0.186007E+01
  10.190670 -0.164492E+00  0.186106E+01
  10.217880 -0.167794E+00  0.186283E+01
  10.245090 -0.172217E+00  0.186523E+01
  10.272300 -0.178165E+00  0.186778E+01
  10.299510 -0.185753E+00  0.186987E+01
  10.326720 -0.194909E+00  0.187091E+01
  10.353940 -0.205371E+00  0.187024E+01
  10.381150 -0.216462E+00  0.186723E+01
  10.408360 -0.227094E+00  0.186169E+01
  10.435570 -0.236249E+00  0.185416E+01
  10.462780 -0.243484E+00  0.184557E+01
  10.489990 -0.248906E+00  0.183671E+01
  10.517200 -0.252810E+00  0.182808E+01
  10.544420 -0.255507E+00  0.182000E+01
  10.571630 -0.257336E+00  0.181268E+01
  10.598840 -0.258675E+00  0.180624E+01
  10.626050 -0.259897E+00  0.180064E+01
  10.653260 -0.261312E+00  0.179568E+01
  10.680470 -0.263097E+00  0.179109E+01
  10.707680 -0.265271E+00  0.178656E+01
  10.734900 -0.267698E+00  0.178185E+01
  10.762110 -0.270145E+00  0.177687E+01
  10.789320 -0.272401E+00  0.177167E+01
  10.816530 -0.274401E+00  0.176644E+01
  10.843740 -0.276218E+00  0.176129E+01
  10.870950 -0.277961E+00  0.175624E+01
  10.898160 -0.279724E+00  0.175124E+01
  10.925380 -0.281553E+00  0.174613E+01
  10.952590 -0.283328E+00  0.174075E+01
  10.979800 -0.284786E+00  0.173507E+01
  11.007010 -0.285739E+00  0.172929E+01
  11.034220 -0.286222E+00  0.172365E+01
  11.061430 -0.286377E+00  0.171822E+01
  11.088640 -0.286238E+00  0.171295E+01
  11.115850 -0.285713E+00  0.170788E+01
  11.143070 -0.284754E+00  0.170319E+01
  11.170280 -0.283492E+00  0.169910E+01
  11.197490 -0.282214E+00  0.169574E+01
  11.224700 -0.281238E+00  0.169299E+01
  11.251910 -0.280748E+00  0.169057E+01
  11.279120 -0.280687E+00  0.168817E+01
  11.306330 -0.280847E+00  0.168563E+01
  11.333550 -0.281054E+00  0.168298E+01
  11.360760 -0.281257E+00  0.168030E+01
  11.387970 -0.281459E+00  0.167757E+01
  11.415180 -0.281621E+00  0.167476E+01
  11.442390 -0.281647E+00  0.167184E+01
  11.469600 -0.281428E+00  0.166884E+01
  11.496810 -0.280856E+00  0.166582E+01
  11.524030 -0.279827E+00  0.166289E+01
  11.551240 -0.278277E+00  0.166022E+01
  11.578450 -0.276214E+00  0.165802E+01
  11.605660 -0.273756E+00  0.165651E+01
  11.632870 -0.271106E+00  0.165579E+01
  11.660080 -0.268461E+00  0.165588E+01
  11.687290 -0.265949E+00  0.165674E+01
  11.714510 -0.263663E+00  0.165835E+01
  11.741720 -0.261728E+00  0.166069E+01
  11.768930 -0.260296E+00  0.166373E+01
  11.796140 -0.259521E+00  0.166736E+01
  11.823350 -0.259547E+00  0.167139E+01
  11.850560 -0.260420E+00  0.167550E+01
  11.877770 -0.261938E+00  0.167936E+01
  11.904990 -0.263695E+00  0.168289E+01
  11.932200 -0.265375E+00  0.168630E+01
  11.959410 -0.266947E+00  0.168990E+01
  11.986620 -0.268541E+00  0.169386E+01
  12.013830 -0.270248E+00  0.169819E+01
  12.041040 -0.272058E+00  0.170290E+01
  12.068250 -0.273946E+00  0.170813E+01
  12.095470 -0.275995E+00  0.171409E+01
  12.122680 -0.278459E+00  0.172094E+01
  12.149890 -0.281710E+00  0.172870E+01
  12.177100 -0.286099E+00  0.173715E+01
  12.204310 -0.291826E+00  0.174592E+01
  12.231520 -0.298878E+00  0.175460E+01
  12.258730 -0.307025E+00  0.176282E+01
  12.285940 -0.315926E+00  0.177046E+01
  12.313160 -0.325302E+00  0.177756E+01
  12.340370 -0.334947E+00  0.178421E+01
  12.367580 -0.344719E+00  0.179058E+01
  12.394790 -0.354605E+00  0.179688E+01
  12.422000 -0.364703E+00  0.180320E+01
  12.449210 -0.375047E+00  0.180949E+01
  12.476420 -0.385505E+00  0.181573E+01
  12.503640 -0.395907E+00  0.182206E+01
  12.530850 -0.406196E+00  0.182875E+01
  12.558060 -0.416397E+00  0.183600E+01
  12.585270 -0.426490E+00  0.184412E+01
  12.612480 -0.436576E+00  0.185360E+01
  12.639690 -0.447123E+00  0.186501E+01
  12.666900 -0.458998E+00  0.187871E+01
  12.694120 -0.473283E+00  0.189459E+01
  12.721330 -0.490944E+00  0.191200E+01
  12.748540 -0.512632E+00  0.192993E+01
  12.775750 -0.538526E+00  0.194711E+01
  12.802960 -0.568239E+00  0.196231E+01
  12.830170 -0.600834E+00  0.197461E+01
  12.857380 -0.635122E+00  0.198371E+01
  12.884600 -0.670140E+00  0.198992E+01
  12.911810 -0.705279E+00  0.199372E+01
  12.939020 -0.740187E+00  0.199564E+01
  12.966230 -0.774634E+00  0.199631E+01
  12.993440 -0.808699E+00  0.199646E+01
  13.020650 -0.842860E+00  0.199668E+01
  13.047860 -0.877779E+00  0.199723E+01
  13.075080 -0.914068E+00  0.199805E+01
  13.102290 -0.952162E+00  0.199894E+01
  13.129500 -0.992447E+00  0.199971E+01
  13.156710 -0.103530E+01  0.200013E+01
  13.183920 -0.108113E+01  0.199991E+01
  13.211130 -0.113030E+01  0.199866E+01
  13.238340 -0.118317E+01  0.199599E+01
  13.265560 -0.124022E+01  0.199145E+01
  13.292770 -0.130200E+01  0.198437E+01
  13.319980 -0.136899E+01  0.197379E+01
  13.347190 -0.144158E+01  0.195854E+01
  13.374400 -0.152004E+01  0.193730E+01
  13.401610 -0.160460E+01  0.190840E+01
  13.428820 -0.169531E+01  0.186979E+01
  13.456030 -0.179206E+01  0.181884E+01
  13.483250 -0.189439E+01  0.175175E+01
  13.510460 -0.200011E+01  0.166301E+01
  13.537670 -0.210333E+01  0.154584E+01
  13.564880 -0.219185E+01  0.139502E+01
